###	Instrument: amaZon speed ETD
###	Manufacturer: Bruker
###    PeakWidth 0.15/0.30, MiniumIntensity 100, S/N 1
###    Retain Residuals no, Create neutrally no,
###    FullScan Parameters: AdductIon (+)+H (-)-H, LowMass 250, HighMass 4000, MaxCharge charge decon 4, MinPeaks 3
###    Perf. isotope decon yes, Max Charge Istopic decon 10, MW agreement 0.00, Abund. cutoff 10.00, Envelope cutoff 75.00
###    MaxRes   Parameters: AdductIon (+)+H (-)-H, LowMass 250, HighMass 4000 
###    Perf. isotope decon yes, Max Charge Istopic decon 10, Abund. cutoff 2.00
###    MSn      Parameters: AdductIon (+)+H (-)-H, LowMass 50, HighMass 2000 
###    Perf. isotope decon yes, Max Charge Istopic decon 8, Abund. cutoff 2.00
###    Global Charge Limit: no 3, Prefer FullScan Result: yes, Export what: 2 (0=non deconv/1=deconv only/2=mixed), NoMSMSSignals: 50, Intensity threshold: 100, NoMSSignals (deconv): 2, NoMSSignals (non-deconv): 0, NormalizeData: no, SingleCharged: no
###	-MS2(1038.90), 42.0-42.4min #1574-1586

###FS:    #m/z: 1038.900 #charge  -2
###MaxRes:#m/z:    0.000 #charge-128
###MS: 
###MSMS: 
BEGIN IONS
TITLE=-MS2(1038.90), 42.0-42.4min #1574-1586
RTINSECONDS=0
SCANS=MS:  MSMS: 
PEPMASS=1038.900	

655.269	904	1-
701.750	883	2-
753.302	559	2-
773.777	704	2-
782.796	4820	2-
817.304	1438	1-
835.333	3393	1-
845.824	680	2-
855.327	487	1-
875.825	1319	2-
906.348	324	1-
926.843	1973	2-
935.853	2434	2-
948.861	1143	2-
956.850	6182	2-
1008.853	1967	2-
1017.855	3333	2-
1524.490	1796	1-
1547.558	474	1-
1626.505	702	1-
1709.531	1629	1-
1727.559	871	1-
350.138	198	
368.120	132	
424.148	219	
470.178	113	
600.236	105	
688.276	111	
692.786	185	
709.287	111	
761.786	106	
826.318	120	
836.816	115	
854.834	336	
856.819	131	
866.838	491	
867.318	228	
891.334	158	
891.837	153	
987.842	138	
988.350	128	
996.830	111	
1003.331	106	
1028.859	141	
1029.857	109	
1030.375	145	
1201.418	117	
1344.482	129	
1345.473	103	
1362.467	113	
1386.472	252	
1506.524	182	
1507.518	185	
1529.488	125	
1566.498	175	
1787.594	157	
1788.628	165	
END IONS

